Data from OFX002551_00021.txt Node
Date: Wed May 03 11:43:33 CEST 2017
User: NPQ
Spectrometer: OFX00255
Trigger mode: 7
Integration Time (sec): 5.000000E-3
Scans to average: 1
Nonlinearity correction enabled: false
Boxcar width: 0
Storing dark spectrum: false
XAxis mode: Wavelengths
Number of Pixels in Spectrum: 2136
>>>>>Begin Spectral Data<<<<<
159.735	2524
160.208	2522
160.681	2518
161.153	2517
161.626	2527
162.099	2525
162.571	2517
163.044	2527
163.516	2522
163.989	2494
164.461	2630
164.934	2587
165.406	2609
165.878	2515
166.351	2513
166.823	2531
167.295	2557
167.767	2531
168.239	2531
168.711	2531
169.183	2542
169.655	2527
170.127	2519
170.599	2512
171.07	2537
171.542	2529
172.014	2520
172.485	2507
172.957	2530
173.429	2516
173.9	2518
174.372	2524
174.843	2539
175.314	2546
175.786	2519
176.257	2528
176.728	2517
177.199	2507
177.67	2521
178.141	2518
178.612	2522
179.083	2529
179.554	2530
180.025	2525
180.496	2510
180.967	2512
181.437	2527
181.908	2523
182.379	2544
182.849	2517
183.32	2531
183.79	2519
184.261	2523
184.731	2522
185.201	2510
185.672	2506
186.142	2519
186.612	2501
187.082	2608
187.552	2537
188.023	2563
188.493	2484
188.963	2513
189.432	2530
189.902	2530
190.372	2535
190.842	2535
191.312	2520
191.781	2522
192.251	2532
192.721	2542
193.19	2513
193.66	2525
194.129	2522
194.598	2516
195.068	2518
195.537	2523
196.006	2531
196.475	2516
196.945	2517
197.414	2516
197.883	2543
198.352	2508
198.821	2513
199.29	2543
199.758	2527
200.227	2527
200.696	2517
201.165	2520
201.633	2902
202.102	2829
202.571	2884
203.039	2878
203.508	2877
203.976	2847
204.444	2919
204.913	2846
205.381	2859
205.849	2858
206.318	2894
206.786	2869
207.254	2919
207.722	2834
208.19	2884
208.658	2820
209.126	2875
209.594	2825
210.061	2922
210.529	2901
210.997	2913
211.464	2859
211.932	2931
212.4	2909
212.867	2918
213.335	2899
213.802	2944
214.269	2916
214.737	2935
215.204	2910
215.671	2919
216.138	2887
216.606	2931
217.073	2906
217.54	2921
218.007	2889
218.474	2946
218.941	2902
219.407	2923
219.874	2928
220.341	2948
220.808	2892
221.274	2917
221.741	2886
222.207	2913
222.674	2941
223.14	2949
223.607	2912
224.073	3003
224.539	2915
225.006	2959
225.472	2948
225.938	2979
226.404	2928
226.87	2970
227.336	2995
227.802	2971
228.268	2988
228.734	2998
229.2	2987
229.666	2992
230.131	2954
230.597	2957
231.063	2952
231.528	2960
231.994	2940
232.459	2993
232.925	2960
233.39	3005
233.855	2948
234.321	3005
234.786	2950
235.251	3011
235.716	3018
236.181	3052
236.646	3014
237.111	3015
237.576	3021
238.041	3015
238.506	2941
238.971	3051
239.436	3022
239.9	3025
240.365	2987
240.83	3052
241.294	3021
241.759	3035
242.223	3012
242.688	3062
243.152	3036
243.616	3058
244.081	3005
244.545	3040
245.009	3042
245.473	3110
245.937	3011
246.401	3029
246.865	3013
247.329	3042
247.793	2998
248.257	3098
248.721	3005
249.184	3073
249.648	3075
250.112	3110
250.575	3012
251.039	3086
251.502	3009
251.966	3084
252.429	3066
252.892	3080
253.356	3074
253.819	3087
254.282	3072
254.745	3102
255.208	3090
255.671	3147
256.134	3099
256.597	3100
257.06	3102
257.523	3125
257.986	3087
258.449	3122
258.911	3116
259.374	3152
259.837	3132
260.299	3138
260.762	3099
261.224	3165
261.687	3137
262.149	3101
262.611	3119
263.074	3152
263.536	3144
263.998	3128
264.46	3156
264.922	3177
265.384	3101
265.846	3211
266.308	3107
266.77	3212
267.232	3173
267.693	3192
268.155	3110
268.617	3156
269.078	3139
269.54	3170
270.002	3131
270.463	3205
270.924	3169
271.386	3200
271.847	3178
272.308	3201
272.77	3162
273.231	3182
273.692	3187
274.153	3237
274.614	3188
275.075	3194
275.536	3197
275.997	3185
276.458	3206
276.918	3221
277.379	3200
277.84	3224
278.301	3208
278.761	3204
279.222	3220
279.682	3196
280.143	3216
280.603	3231
281.063	3221
281.524	3253
281.984	3241
282.444	3223
282.904	3200
283.364	3246
283.824	3209
284.284	3250
284.744	3226
285.204	3254
285.664	3215
286.124	3282
286.583	3235
287.043	3264
287.503	3241
287.962	3275
288.422	3244
288.881	3243
289.341	3260
289.8	3255
290.26	3255
290.719	3260
291.178	3264
291.637	3273
292.097	3262
292.556	3270
293.015	3268
293.474	3308
293.933	3244
294.391	3290
294.85	3293
295.309	3284
295.768	3275
296.227	3280
296.685	3255
297.144	3292
297.602	3267
298.061	3306
298.519	3261
298.978	3290
299.436	3285
299.894	3319
300.353	3328
300.811	3303
301.269	3301
301.727	3278
302.185	3288
302.643	3340
303.101	3311
303.559	3321
304.017	3314
304.475	3325
304.932	3324
305.39	3312
305.848	3295
306.305	3305
306.763	3303
307.22	3307
307.678	3326
308.135	3296
308.593	3301
309.05	3328
309.507	3296
309.964	3316
310.421	3316
310.879	3334
311.336	3328
311.793	3345
312.25	3282
312.706	3337
313.163	3320
313.62	3326
314.077	3280
314.534	3368
314.99	3327
315.447	3357
315.903	3312
316.36	3334
316.816	3333
317.273	3355
317.729	3325
318.185	3341
318.642	3346
319.098	3361
319.554	3349
320.01	3335
320.466	3317
320.922	3355
321.378	3306
321.834	3342
322.29	3325
322.746	3333
323.201	3324
323.657	3338
324.113	3341
324.568	3365
325.024	3314
325.479	3373
325.935	3323
326.39	3345
326.845	3338
327.301	3374
327.756	3357
328.211	3347
328.666	3351
329.121	3361
329.576	3348
330.031	3354
330.486	3313
330.941	3379
331.396	3393
331.851	3376
332.306	3376
332.76	3363
333.215	3343
333.669	3405
334.124	3359
334.578	3385
335.033	3385
335.487	3365
335.942	3367
336.396	3397
336.85	3379
337.304	3379
337.758	3382
338.212	3391
338.667	3378
339.121	3388
339.574	3397
340.028	3372
340.482	3370
340.936	3404
341.39	3375
341.843	3388
342.297	3394
342.75	3412
343.204	3384
343.657	3380
344.111	3387
344.564	3400
345.018	3390
345.471	3403
345.924	3404
346.377	3401
346.83	3407
347.283	3369
347.736	3372
348.189	3426
348.642	3389
349.095	3388
349.548	3405
350.001	3406
350.453	3381
350.906	3415
351.359	3428
351.811	3390
352.264	3404
352.716	3419
353.169	3389
353.621	3421
354.073	3382
354.525	3416
354.978	3427
355.43	3396
355.882	3434
356.334	3395
356.786	3429
357.238	3411
357.69	3420
358.142	3452
358.593	3424
359.045	3408
359.497	3414
359.948	3428
360.4	3437
360.852	3423
361.303	3404
361.754	3415
362.206	3421
362.657	3440
363.108	3428
363.56	3458
364.011	3456
364.462	3405
364.913	3442
365.364	3425
365.815	3423
366.266	3441
366.717	3442
367.168	3423
367.618	3432
368.069	3427
368.52	3432
368.97	3438
369.421	3436
369.871	3456
370.322	3430
370.772	3472
371.223	3436
371.673	3447
372.123	3452
372.573	3453
373.024	3449
373.474	3443
373.924	3428
374.374	3412
374.824	3460
375.274	3447
375.723	3453
376.173	3451
376.623	3421
377.073	3429
377.522	3433
377.972	3440
378.421	3470
378.871	3434
379.32	3444
379.77	3416
380.219	3430
380.668	3439
381.118	3412
381.567	3439
382.016	3451
382.465	3426
382.914	3427
383.363	3436
383.812	3439
384.261	3449
384.709	3423
385.158	3431
385.607	3427
386.056	3438
386.504	3438
386.953	3433
387.401	3446
387.85	3454
388.298	3428
388.746	3417
389.195	3452
389.643	3434
390.091	3441
390.539	3433
390.987	3444
391.435	3435
391.883	3450
392.331	3458
392.779	3452
393.227	3423
393.675	3457
394.123	3432
394.57	3440
395.018	3458
395.465	3444
395.913	3443
396.36	3456
396.808	3433
397.255	3414
397.703	3449
398.15	3453
398.597	3453
399.044	3441
399.491	3446
399.938	3451
400.385	3478
400.832	3456
401.279	3470
401.726	3461
402.173	3471
402.62	3450
403.066	3438
403.513	3485
403.959	3459
404.406	3462
404.853	3473
405.299	3441
405.745	3444
406.192	3481
406.638	3440
407.084	3475
407.53	3451
407.976	3469
408.422	3451
408.868	3453
409.314	3443
409.76	3459
410.206	3452
410.652	3452
411.098	3448
411.543	3456
411.989	3456
412.435	3442
412.88	3457
413.326	3447
413.771	3463
414.217	3444
414.662	3459
415.107	3440
415.552	3476
415.998	3449
416.443	3452
416.888	3468
417.333	3459
417.778	3472
418.223	3454
418.668	3447
419.112	3469
419.557	3440
420.002	3439
420.447	3448
420.891	3435
421.336	3464
421.78	3461
422.225	3436
422.669	3448
423.113	3456
423.558	3476
424.002	3486
424.446	3461
424.89	3456
425.334	3473
425.778	3448
426.222	3443
426.666	3462
427.11	3461
427.554	3454
427.998	3452
428.441	3450
428.885	3427
429.329	3472
429.772	3445
430.216	3465
430.659	3477
431.103	3460
431.546	3461
431.989	3446
432.432	3448
432.876	3468
433.319	3427
433.762	3466
434.205	3441
434.648	3462
435.091	3427
435.534	3449
435.977	3454
436.419	3460
436.862	3450
437.305	3446
437.747	3450
438.19	3479
438.632	3461
439.075	3452
439.517	3435
439.96	3467
440.402	3444
440.844	3466
441.286	3450
441.728	3462
442.17	3459
442.613	3463
443.054	3459
443.496	3484
443.938	3455
444.38	3479
444.822	3484
445.264	3448
445.705	3462
446.147	3441
446.588	3423
447.03	3477
447.471	3443
447.913	3462
448.354	3440
448.795	3440
449.237	3423
449.678	3477
450.119	3458
450.56	3462
451.001	3453
451.442	3462
451.883	3462
452.324	3449
452.765	3461
453.205	3465
453.646	3438
454.087	3454
454.527	3461
454.968	3470
455.408	3437
455.849	3432
456.289	3451
456.73	3475
457.17	3458
457.61	3474
458.05	3485
458.49	3464
458.93	3440
459.37	3472
459.81	3450
460.25	3444
460.69	3459
461.13	3483
461.57	3460
462.009	3469
462.449	3432
462.889	3469
463.328	3435
463.768	3474
464.207	3477
464.647	3466
465.086	3445
465.525	3467
465.964	3469
466.404	3469
466.843	3417
467.282	3438
467.721	3455
468.16	3452
468.599	3450
469.037	3458
469.476	3453
469.915	3446
470.354	3450
470.792	3481
471.231	3461
471.669	3455
472.108	3457
472.546	3459
472.985	3478
473.423	3451
473.861	3456
474.299	3445
474.738	3439
475.176	3474
475.614	3470
476.052	3479
476.49	3463
476.928	3437
477.365	3438
477.803	3426
478.241	3419
478.679	3442
479.116	3412
479.554	3407
479.991	3455
480.429	3443
480.866	3438
481.304	3445
481.741	3446
482.178	3449
482.615	3422
483.052	3438
483.49	3420
483.927	3439
484.364	3445
484.8	3464
485.237	3420
485.674	3463
486.111	3432
486.548	3448
486.984	3440
487.421	3430
487.857	3473
488.294	3460
488.73	3441
489.167	3424
489.603	3437
490.039	3455
490.476	3434
490.912	3451
491.348	3444
491.784	3423
492.22	3462
492.656	3459
493.092	3442
493.528	3445
493.963	3431
494.399	3440
494.835	3460
495.271	3441
495.706	3437
496.142	3438
496.577	3424
497.013	3451
497.448	3426
497.883	3427
498.318	3449
498.754	3442
499.189	3431
499.624	3448
500.059	3421
500.494	3437
500.929	3391
501.364	3453
501.799	3406
502.233	3453
502.668	3424
503.103	3463
503.537	3443
503.972	3437
504.406	3426
504.841	3441
505.275	3417
505.71	3460
506.144	3414
506.578	3441
507.012	3431
507.446	3430
507.88	3437
508.314	3446
508.748	3417
509.182	3458
509.616	3410
510.05	3430
510.484	3471
510.917	3450
511.351	3428
511.785	3436
512.218	3460
512.652	3453
513.085	3437
513.518	3437
513.952	3450
514.385	3442
514.818	3462
515.251	3422
515.684	3436
516.117	3458
516.55	3426
516.983	3456
517.416	3471
517.849	3451
518.282	3454
518.715	3449
519.147	3435
519.58	3435
520.012	3399
520.445	3460
520.877	3426
521.31	3429
521.742	3429
522.174	3458
522.607	3427
523.039	3464
523.471	3470
523.903	3463
524.335	3439
524.767	3430
525.199	3424
525.631	3465
526.062	3429
526.494	3425
526.926	3437
527.357	3443
527.789	3417
528.221	3427
528.652	3434
529.083	3458
529.515	3448
529.946	3444
530.377	3433
530.808	3427
531.24	3412
531.671	3460
532.102	3441
532.533	3430
532.964	3440
533.394	3423
533.825	3435
534.256	3422
534.687	3442
535.117	3460
535.548	3451
535.979	3439
536.409	3383
536.839	3444
537.27	3398
537.7	3417
538.13	3411
538.561	3430
538.991	3432
539.421	3443
539.851	3432
540.281	3429
540.711	3425
541.141	3430
541.57	3409
542	3434
542.43	3424
542.86	3431
543.289	3429
543.719	3454
544.148	3413
544.578	3416
545.007	3416
545.436	3442
545.866	3423
546.295	3435
546.724	3401
547.153	3382
547.582	3388
548.011	3411
548.44	3395
548.869	3414
549.298	3414
549.727	3423
550.155	3401
550.584	3419
551.013	3412
551.441	3417
551.87	3416
552.298	3435
552.727	3424
553.155	3423
553.583	3446
554.011	3401
554.44	3410
554.868	3424
555.296	3407
555.724	3422
556.152	3389
556.58	3430
557.007	3396
557.435	3422
557.863	3398
558.291	3408
558.718	3413
559.146	3419
559.573	3434
560.001	3396
560.428	3401
560.856	3415
561.283	3406
561.71	3431
562.137	3419
562.564	3425
562.991	3411
563.418	3420
563.845	3402
564.272	3417
564.699	3380
565.126	3430
565.553	3404
565.979	3398
566.406	3434
566.833	3398
567.259	3426
567.686	3421
568.112	3430
568.538	3437
568.965	3417
569.391	3427
569.817	3416
570.243	3427
570.669	3435
571.095	3406
571.521	3420
571.947	3418
572.373	3431
572.799	3441
573.225	3408
573.65	3415
574.076	3414
574.501	3431
574.927	3375
575.352	3432
575.778	3412
576.203	3420
576.628	3395
577.054	3421
577.479	3417
577.904	3417
578.329	3395
578.754	3419
579.179	3396
579.604	3406
580.029	3395
580.454	3379
580.878	3430
581.303	3415
581.728	3387
582.152	3404
582.577	3397
583.001	3443
583.426	3384
583.85	3424
584.274	3399
584.699	3432
585.123	3411
585.547	3419
585.971	3395
586.395	3407
586.819	3373
587.243	3387
587.667	3406
588.09	3417
588.514	3418
588.938	3422
589.361	3415
589.785	3408
590.209	3416
590.632	3404
591.055	3392
591.479	3380
591.902	3409
592.325	3417
592.748	3390
593.172	3405
593.595	3430
594.018	3429
594.441	3432
594.864	3429
595.286	3425
595.709	3388
596.132	3426
596.555	3414
596.977	3422
597.4	3422
597.822	3433
598.245	3418
598.667	3420
599.089	3422
599.512	3411
599.934	3419
600.356	3436
600.778	3417
601.2	3414
601.622	3429
602.044	3367
602.466	3460
602.888	3399
603.31	3428
603.732	3444
604.153	3403
604.575	3403
604.996	3441
605.418	3407
605.839	3412
606.261	3438
606.682	3428
607.103	3426
607.524	3396
607.946	3421
608.367	3416
608.788	3412
609.209	3454
609.63	3399
610.051	3425
610.471	3415
610.892	3438
611.313	3414
611.734	3432
612.154	3414
612.575	3436
612.995	3423
613.416	3434
613.836	3415
614.256	3410
614.677	3411
615.097	3442
615.517	3409
615.937	3445
616.357	3407
616.777	3456
617.197	3397
617.617	3410
618.037	3427
618.456	3426
618.876	3389
619.296	3433
619.715	3409
620.135	3420
620.554	3410
620.974	3406
621.393	3451
621.812	3429
622.232	3423
622.651	3428
623.07	3418
623.489	3411
623.908	3404
624.327	3431
624.746	3416
625.165	3421
625.584	3418
626.002	3393
626.421	3419
626.84	3438
627.258	3443
627.677	3435
628.095	3426
628.513	3421
628.932	3413
629.35	3371
629.768	3393
630.186	3439
630.605	3382
631.023	3399
631.441	3397
631.859	3420
632.276	3387
632.694	3436
633.112	3397
633.53	3370
633.947	3389
634.365	3390
634.783	3414
635.2	3393
635.618	3390
636.035	3395
636.452	3410
636.869	3389
637.287	3407
637.704	3399
638.121	3399
638.538	3426
638.955	3374
639.372	3391
639.789	3389
640.206	3425
640.622	3394
641.039	3431
641.456	3395
641.872	3415
642.289	3404
642.705	3408
643.122	3400
643.538	3438
643.954	3414
644.37	3404
644.787	3392
645.203	3407
645.619	3384
646.035	3394
646.451	3396
646.867	3416
647.282	3416
647.698	3348
648.114	3407
648.53	3401
648.945	3386
649.361	3397
649.776	3386
650.192	3401
650.607	3402
651.022	3389
651.438	3408
651.853	3397
652.268	3399
652.683	3406
653.098	3377
653.513	3386
653.928	3392
654.343	3377
654.758	3376
655.173	3388
655.587	3394
656.002	3438
656.416	3403
656.831	3415
657.245	3383
657.66	3409
658.074	3374
658.488	3402
658.903	3422
659.317	3424
659.731	3400
660.145	3422
660.559	3400
660.973	3422
661.387	3420
661.801	3423
662.214	3414
662.628	3409
663.042	3408
663.455	3400
663.869	3390
664.283	3397
664.696	3412
665.109	3390
665.523	3421
665.936	3391
666.349	3410
666.762	3432
667.175	3402
667.588	3412
668.001	3412
668.414	3422
668.827	3401
669.24	3417
669.653	3416
670.065	3421
670.478	3394
670.891	3431
671.303	3402
671.715	3398
672.128	3414
672.54	3406
672.952	3399
673.365	3399
673.777	3415
674.189	3404
674.601	3396
675.013	3411
675.425	3404
675.837	3421
676.249	3401
676.66	3386
677.072	3407
677.484	3431
677.895	3410
678.307	3438
678.718	3421
679.13	3432
679.541	3421
679.952	3412
680.364	3441
680.775	3408
681.186	3391
681.597	3415
682.008	3410
682.419	3419
682.83	3407
683.241	3397
683.652	3409
684.062	3417
684.473	3409
684.883	3429
685.294	3411
685.705	3422
686.115	3413
686.525	3402
686.936	3420
687.346	3411
687.756	3424
688.166	3434
688.576	3401
688.986	3410
689.396	3414
689.806	3417
690.216	3412
690.626	3421
691.036	3406
691.445	3437
691.855	3405
692.264	3409
692.674	3389
693.083	3426
693.493	3409
693.902	3394
694.311	3380
694.721	3455
695.13	3438
695.539	3440
695.948	3428
696.357	3411
696.766	3436
697.175	3416
697.583	3414
697.992	3412
698.401	3440
698.81	3432
699.218	3416
699.627	3417
700.035	3425
700.443	3412
700.852	3443
701.26	3444
701.668	3421
702.077	3398
702.485	3408
702.893	3411
703.301	3418
703.709	3432
704.116	3436
704.524	3395
704.932	3419
705.34	3393
705.747	3423
706.155	3432
706.562	3406
706.97	3429
707.377	3409
707.785	3421
708.192	3407
708.599	3395
709.006	3440
709.414	3419
709.821	3402
710.228	3424
710.635	3405
711.041	3439
711.448	3401
711.855	3417
712.262	3399
712.668	3420
713.075	3403
713.481	3424
713.888	3411
714.294	3416
714.701	3384
715.107	3407
715.513	3405
715.919	3397
716.326	3432
716.732	3409
717.138	3406
717.544	3425
717.949	3405
718.355	3399
718.761	3426
719.167	3380
719.572	3426
719.978	3419
720.383	3365
720.789	3375
721.194	3374
721.6	3399
722.005	3419
722.41	3387
722.815	3393
723.221	3388
723.626	3398
724.031	3382
724.436	3367
724.84	3417
725.245	3420
725.65	3366
726.055	3364
726.459	3379
726.864	3416
727.269	3425
727.673	3402
728.077	3402
728.482	3378
728.886	3368
729.29	3381
729.695	3419
730.099	3399
730.503	3404
730.907	3393
731.311	3404
731.715	3390
732.118	3404
732.522	3404
732.926	3400
733.33	3372
733.733	3423
734.137	3414
734.54	3417
734.944	3395
735.347	3407
735.75	3411
736.153	3386
736.557	3402
736.96	3394
737.363	3393
737.766	3425
738.169	3378
738.572	3419
738.974	3422
739.377	3392
739.78	3382
740.183	3399
740.585	3401
740.988	3420
741.39	3400
741.793	3409
742.195	3398
742.597	3392
742.999	3366
743.402	3405
743.804	3401
744.206	3400
744.608	3392
745.01	3381
745.412	3383
745.813	3382
746.215	3398
746.617	3412
747.019	3369
747.42	3430
747.822	3387
748.223	3411
748.624	3402
749.026	3422
749.427	3397
749.828	3414
750.229	3388
750.631	3382
751.032	3407
751.433	3419
751.834	3372
752.234	3387
752.635	3419
753.036	3395
753.437	3431
753.837	3400
754.238	3409
754.638	3419
755.039	3415
755.439	3401
755.84	3407
756.24	3398
756.64	3408
757.04	3395
757.44	3396
757.84	3392
758.24	3408
758.64	3426
759.04	3415
759.44	3404
759.84	3421
760.239	3412
760.639	3392
761.039	3401
761.438	3400
761.837	3411
762.237	3365
762.636	3398
763.035	3410
763.435	3425
763.834	3382
764.233	3400
764.632	3401
765.031	3399
765.43	3423
765.829	3386
766.227	3401
766.626	3438
767.025	3417
767.423	3431
767.822	3409
768.22	3434
768.619	3382
769.017	3394
769.415	3396
769.814	3388
770.212	3392
770.61	3405
771.008	3446
771.406	3408
771.804	3385
772.202	3409
772.6	3395
772.998	3419
773.395	3390
773.793	3414
774.191	3413
774.588	3385
774.986	3425
775.383	3386
775.78	3386
776.178	3418
776.575	3380
776.972	3385
